"group3 - RawData"
"Wavelength nm.","Abs."
510.00,0.033
510.05,0.034
510.10,0.036
510.15,0.037
510.20,0.039
510.25,0.038
510.30,0.037
510.35,0.036
510.40,0.038
510.45,0.036
510.50,0.035
510.55,0.036
510.60,0.036
510.65,0.033
510.70,0.034
510.75,0.035
510.80,0.034
510.85,0.032
510.90,0.034
510.95,0.033
511.00,0.033
511.05,0.038
511.10,0.037
511.15,0.039
511.20,0.038
511.25,0.037
511.30,0.037
511.35,0.035
511.40,0.038
511.45,0.036
511.50,0.035
511.55,0.037
511.60,0.034
511.65,0.036
511.70,0.035
511.75,0.034
511.80,0.034
511.85,0.034
511.90,0.035
511.95,0.033
512.00,0.032
512.05,0.036
512.10,0.039
512.15,0.039
512.20,0.040
512.25,0.036
512.30,0.038
512.35,0.039
512.40,0.037
512.45,0.038
512.50,0.038
512.55,0.036
512.60,0.037
512.65,0.034
512.70,0.036
512.75,0.034
512.80,0.034
512.85,0.033
512.90,0.033
512.95,0.033
513.00,0.034
513.05,0.032
513.10,0.036
513.15,0.037
513.20,0.039
513.25,0.041
513.30,0.038
513.35,0.039
513.40,0.038
513.45,0.039
513.50,0.037
513.55,0.038
513.60,0.037
513.65,0.035
513.70,0.037
513.75,0.036
513.80,0.035
513.85,0.035
513.90,0.035
513.95,0.033
514.00,0.035
514.05,0.034
514.10,0.035
514.15,0.036
514.20,0.033
514.25,0.034
514.30,0.041
514.35,0.038
514.40,0.040
514.45,0.040
514.50,0.040
514.55,0.039
514.60,0.037
514.65,0.038
514.70,0.038
514.75,0.038
514.80,0.037
514.85,0.038
514.90,0.038
514.95,0.037
515.00,0.037
515.05,0.035
515.10,0.036
515.15,0.035
515.20,0.035
515.25,0.034
515.30,0.033
515.35,0.035
515.40,0.034
515.45,0.037
515.50,0.041
515.55,0.041
515.60,0.042
515.65,0.040
515.70,0.039
515.75,0.040
515.80,0.038
515.85,0.039
515.90,0.035
515.95,0.037
516.00,0.035
516.05,0.035
516.10,0.037
516.15,0.034
516.20,0.035
516.25,0.035
516.30,0.033
516.35,0.033
516.40,0.035
516.45,0.035
516.50,0.030
516.55,0.034
516.60,0.032
516.65,0.039
516.70,0.042
516.75,0.040
516.80,0.041
516.85,0.039
516.90,0.040
516.95,0.038
517.00,0.039
517.05,0.039
517.10,0.038
517.15,0.038
517.20,0.038
517.25,0.039
517.30,0.038
517.35,0.037
517.40,0.036
517.45,0.036
517.50,0.034
517.55,0.034
517.60,0.033
517.65,0.035
517.70,0.033
517.75,0.035
517.80,0.033
517.85,0.033
517.90,0.037
517.95,0.039
518.00,0.041
518.05,0.042
518.10,0.041
518.15,0.042
518.20,0.041
518.25,0.042
518.30,0.040
518.35,0.037
518.40,0.037
518.45,0.037
518.50,0.038
518.55,0.038
518.60,0.035
518.65,0.037
518.70,0.036
518.75,0.038
518.80,0.035
518.85,0.035
518.90,0.035
518.95,0.035
519.00,0.035
519.05,0.034
519.10,0.035
519.15,0.035
519.20,0.034
519.25,0.033
519.30,0.039
519.35,0.042
519.40,0.041
519.45,0.041
519.50,0.043
519.55,0.042
519.60,0.039
519.65,0.039
519.70,0.038
519.75,0.037
519.80,0.038
519.85,0.036
519.90,0.035
519.95,0.037
520.00,0.037
520.05,0.035
520.10,0.037
520.15,0.036
520.20,0.035
520.25,0.034
520.30,0.035
520.35,0.034
520.40,0.033
520.45,0.034
520.50,0.032
520.55,0.032
520.60,0.033
520.65,0.032
520.70,0.033
520.75,0.043
520.80,0.043
520.85,0.043
520.90,0.041
520.95,0.041
521.00,0.040
521.05,0.041
521.10,0.042
521.15,0.040
521.20,0.041
521.25,0.036
521.30,0.037
521.35,0.039
521.40,0.037
521.45,0.039
521.50,0.036
521.55,0.039
521.60,0.036
521.65,0.037
521.70,0.035
521.75,0.034
521.80,0.033
521.85,0.035
521.90,0.034
521.95,0.033
522.00,0.031
522.05,0.034
522.10,0.032
522.15,0.035
522.20,0.042
522.25,0.042
522.30,0.042
522.35,0.041
522.40,0.045
522.45,0.039
522.50,0.044
522.55,0.040
522.60,0.039
522.65,0.042
522.70,0.038
522.75,0.041
522.80,0.037
522.85,0.039
522.90,0.037
522.95,0.036
523.00,0.036
523.05,0.036
523.10,0.036
523.15,0.036
523.20,0.035
523.25,0.034
523.30,0.033
523.35,0.033
523.40,0.035
523.45,0.030
523.50,0.033
523.55,0.032
523.60,0.033
523.65,0.036
523.70,0.041
523.75,0.043
523.80,0.044
523.85,0.043
523.90,0.042
523.95,0.039
524.00,0.042
524.05,0.040
524.10,0.041
524.15,0.041
524.20,0.040
524.25,0.039
524.30,0.038
524.35,0.037
524.40,0.039
524.45,0.037
524.50,0.037
524.55,0.036
524.60,0.038
524.65,0.037
524.70,0.036
524.75,0.034
524.80,0.035
524.85,0.034
524.90,0.032
524.95,0.034
525.00,0.034
525.05,0.031
525.10,0.033
525.15,0.031
525.20,0.032
525.25,0.035
525.30,0.041
525.35,0.044
525.40,0.043
525.45,0.044
525.50,0.042
525.55,0.043
525.60,0.043
525.65,0.042
525.70,0.042
525.75,0.040
525.80,0.039
525.85,0.042
525.90,0.039
525.95,0.036
526.00,0.040
526.05,0.035
526.10,0.039
526.15,0.035
526.20,0.037
526.25,0.036
526.30,0.034
526.35,0.037
526.40,0.036
526.45,0.034
526.50,0.033
526.55,0.034
526.60,0.030
526.65,0.030
526.70,0.034
526.75,0.033
526.80,0.032
526.85,0.031
526.90,0.033
526.95,0.042
527.00,0.046
527.05,0.045
527.10,0.046
527.15,0.043
527.20,0.044
527.25,0.044
527.30,0.042
527.35,0.043
527.40,0.042
527.45,0.041
527.50,0.040
527.55,0.040
527.60,0.039
527.65,0.041
527.70,0.038
527.75,0.037
527.80,0.036
527.85,0.038
527.90,0.037
527.95,0.035
528.00,0.036
528.05,0.034
528.10,0.034
528.15,0.034
528.20,0.034
528.25,0.034
528.30,0.031
528.35,0.033
528.40,0.033
528.45,0.032
528.50,0.034
528.55,0.031
528.60,0.031
528.65,0.033
528.70,0.032
528.75,0.042
528.80,0.046
528.85,0.046
528.90,0.047
528.95,0.044
529.00,0.042
529.05,0.046
529.10,0.041
529.15,0.041
529.20,0.039
529.25,0.041
529.30,0.042
529.35,0.038
529.40,0.036
529.45,0.039
529.50,0.041
529.55,0.036
529.60,0.035
529.65,0.036
529.70,0.038
529.75,0.035
529.80,0.033
529.85,0.035
529.90,0.036
529.95,0.034
530.00,0.034
530.05,0.032
530.10,0.033
530.15,0.034
530.20,0.031
530.25,0.032
530.30,0.030
530.35,0.031
530.40,0.032
530.45,0.030
530.50,0.030
530.55,0.034
530.60,0.041
530.65,0.045
530.70,0.044
530.75,0.045
530.80,0.044
530.85,0.044
530.90,0.042
530.95,0.041
531.00,0.041
531.05,0.042
531.10,0.041
531.15,0.042
531.20,0.039
531.25,0.039
531.30,0.038
531.35,0.037
531.40,0.036
531.45,0.037
531.50,0.038
531.55,0.035
531.60,0.035
531.65,0.035
531.70,0.036
531.75,0.034
531.80,0.034
531.85,0.035
531.90,0.033
531.95,0.030
532.00,0.032
532.05,0.033
532.10,0.029
532.15,0.032
532.20,0.030
532.25,0.031
532.30,0.031
532.35,0.029
532.40,0.031
532.45,0.035
532.50,0.043
532.55,0.046
532.60,0.045
532.65,0.046
532.70,0.043
532.75,0.044
532.80,0.044
532.85,0.044
532.90,0.040
532.95,0.043
533.00,0.041
533.05,0.039
533.10,0.039
533.15,0.037
533.20,0.037
533.25,0.037
533.30,0.036
533.35,0.036
533.40,0.036
533.45,0.036
533.50,0.034
533.55,0.033
533.60,0.035
533.65,0.037
533.70,0.032
533.75,0.035
533.80,0.032
533.85,0.032
533.90,0.031
533.95,0.032
534.00,0.031
534.05,0.033
534.10,0.030
534.15,0.030
534.20,0.029
534.25,0.031
534.30,0.032
534.35,0.030
534.40,0.031
534.45,0.039
534.50,0.043
534.55,0.045
534.60,0.045
534.65,0.046
534.70,0.040
534.75,0.046
534.80,0.041
534.85,0.043
534.90,0.042
534.95,0.042
535.00,0.040
535.05,0.040
535.10,0.038
535.15,0.040
535.20,0.038
535.25,0.036
535.30,0.035
535.35,0.035
535.40,0.036
535.45,0.034
535.50,0.036
535.55,0.037
535.60,0.034
535.65,0.036
535.70,0.033
535.75,0.032
535.80,0.032
535.85,0.031
535.90,0.030
535.95,0.033
536.00,0.031
536.05,0.032
536.10,0.029
536.15,0.030
536.20,0.029
536.25,0.030
536.30,0.031
536.35,0.030
536.40,0.028
536.45,0.031
536.50,0.036
536.55,0.045
536.60,0.046
536.65,0.045
536.70,0.045
536.75,0.043
536.80,0.044
536.85,0.043
536.90,0.042
536.95,0.042
537.00,0.040
537.05,0.040
537.10,0.040
537.15,0.038
537.20,0.039
537.25,0.037
537.30,0.038
537.35,0.038
537.40,0.037
537.45,0.036
537.50,0.037
537.55,0.036
537.60,0.036
537.65,0.034
537.70,0.035
537.75,0.036
537.80,0.033
537.85,0.034
537.90,0.031
537.95,0.032
538.00,0.030
538.05,0.032
538.10,0.032
538.15,0.030
538.20,0.030
538.25,0.030
538.30,0.028
538.35,0.030
538.40,0.028
538.45,0.028
538.50,0.029
538.55,0.030
538.60,0.037
538.65,0.046
538.70,0.045
538.75,0.045
538.80,0.044
538.85,0.044
538.90,0.043
538.95,0.044
539.00,0.043
539.05,0.041
539.10,0.039
539.15,0.042
539.20,0.042
539.25,0.037
539.30,0.040
539.35,0.036
539.40,0.037
539.45,0.039
539.50,0.038
539.55,0.038
539.60,0.037
539.65,0.037
539.70,0.035
539.75,0.035
539.80,0.032
539.85,0.034
539.90,0.031
539.95,0.031
540.00,0.032
540.05,0.032
540.10,0.031
540.15,0.029
540.20,0.030
540.25,0.029
540.30,0.031
540.35,0.027
540.40,0.028
540.45,0.027
540.50,0.027
540.55,0.026
540.60,0.026
540.65,0.028
540.70,0.028
540.75,0.031
540.80,0.039
540.85,0.043
540.90,0.045
540.95,0.044
541.00,0.044
541.05,0.044
541.10,0.043
541.15,0.043
541.20,0.042
541.25,0.040
541.30,0.041
541.35,0.039
541.40,0.040
541.45,0.041
541.50,0.038
541.55,0.038
541.60,0.037
541.65,0.038
541.70,0.037
541.75,0.035
541.80,0.035
541.85,0.036
541.90,0.034
541.95,0.034
542.00,0.033
542.05,0.032
542.10,0.033
542.15,0.031
542.20,0.032
542.25,0.030
542.30,0.029
542.35,0.030
542.40,0.029
542.45,0.029
542.50,0.030
542.55,0.028
542.60,0.028
542.65,0.028
542.70,0.028
542.75,0.028
542.80,0.028
542.85,0.031
542.90,0.029
542.95,0.028
543.00,0.028
543.05,0.032
543.10,0.040
543.15,0.046
543.20,0.043
543.25,0.043
543.30,0.044
543.35,0.043
543.40,0.040
543.45,0.041
543.50,0.039
543.55,0.040
543.60,0.040
543.65,0.037
543.70,0.039
543.75,0.037
543.80,0.037
543.85,0.035
543.90,0.036
543.95,0.034
544.00,0.034
544.05,0.035
544.10,0.034
544.15,0.033
544.20,0.032
544.25,0.032
544.30,0.032
544.35,0.031
544.40,0.032
544.45,0.030
544.50,0.031
544.55,0.031
544.60,0.030
544.65,0.028
544.70,0.029
544.75,0.029
544.80,0.029
544.85,0.029
544.90,0.029
544.95,0.031
545.00,0.031
545.05,0.031
545.10,0.027
545.15,0.029
545.20,0.029
545.25,0.028
545.30,0.027
545.35,0.028
545.40,0.028
545.45,0.029
545.50,0.040
545.55,0.044
545.60,0.043
545.65,0.043
545.70,0.040
545.75,0.042
545.80,0.040
545.85,0.040
545.90,0.039
545.95,0.036
546.00,0.039
546.05,0.037
546.10,0.035
546.15,0.035
546.20,0.037
546.25,0.034
546.30,0.034
546.35,0.033
546.40,0.031
546.45,0.032
546.50,0.032
546.55,0.031
546.60,0.033
546.65,0.030
546.70,0.030
546.75,0.031
546.80,0.029
546.85,0.029
546.90,0.031
546.95,0.027
547.00,0.030
547.05,0.027
547.10,0.028
547.15,0.029
547.20,0.031
547.25,0.031
547.30,0.030
547.35,0.030
547.40,0.031
547.45,0.027
547.50,0.028
547.55,0.027
547.60,0.028
547.65,0.027
547.70,0.026
547.75,0.027
547.80,0.028
547.85,0.030
547.90,0.039
547.95,0.042
548.00,0.040
548.05,0.041
548.10,0.041
548.15,0.040
548.20,0.040
548.25,0.038
548.30,0.039
548.35,0.037
548.40,0.038
548.45,0.036
548.50,0.035
548.55,0.036
548.60,0.034
548.65,0.035
548.70,0.035
548.75,0.030
548.80,0.033
548.85,0.031
548.90,0.031
548.95,0.032
549.00,0.030
549.05,0.032
549.10,0.029
549.15,0.029
549.20,0.029
549.25,0.030
549.30,0.029
549.35,0.028
549.40,0.029
549.45,0.033
549.50,0.033
549.55,0.032
549.60,0.034
549.65,0.031
549.70,0.031
549.75,0.029
549.80,0.030
549.85,0.030
549.90,0.029
549.95,0.028
550.00,0.029
550.05,0.026
550.10,0.026
550.15,0.025
550.20,0.027
550.25,0.026
550.30,0.024
550.35,0.030
550.40,0.035
550.45,0.039
550.50,0.042
550.55,0.040
550.60,0.040
550.65,0.038
550.70,0.036
550.75,0.036
550.80,0.036
550.85,0.035
550.90,0.034
550.95,0.034
551.00,0.034
551.05,0.033
551.10,0.032
551.15,0.032
551.20,0.032
551.25,0.032
551.30,0.032
551.35,0.031
551.40,0.031
551.45,0.030
551.50,0.030
551.55,0.031
551.60,0.030
551.65,0.028
551.70,0.029
551.75,0.028
551.80,0.028
551.85,0.030
551.90,0.031
551.95,0.033
552.00,0.031
552.05,0.031
552.10,0.031
552.15,0.031
552.20,0.029
552.25,0.030
552.30,0.030
552.35,0.029
552.40,0.029
552.45,0.028
552.50,0.028
552.55,0.027
552.60,0.028
552.65,0.027
552.70,0.027
552.75,0.028
552.80,0.027
552.85,0.025
552.90,0.025
552.95,0.027
553.00,0.032
553.05,0.035
553.10,0.038
553.15,0.038
553.20,0.039
553.25,0.036
553.30,0.035
553.35,0.035
553.40,0.036
553.45,0.034
553.50,0.035
553.55,0.034
553.60,0.034
553.65,0.033
553.70,0.032
553.75,0.033
553.80,0.033
553.85,0.030
553.90,0.031
553.95,0.030
554.00,0.028
554.05,0.029
554.10,0.030
554.15,0.030
554.20,0.027
554.25,0.027
554.30,0.027
554.35,0.030
554.40,0.032
554.45,0.031
554.50,0.032
554.55,0.032
554.60,0.031
554.65,0.029
554.70,0.031
554.75,0.031
554.80,0.029
554.85,0.030
554.90,0.029
554.95,0.028
555.00,0.027
555.05,0.027
555.10,0.026
555.15,0.027
555.20,0.027
555.25,0.026
555.30,0.025
555.35,0.025
555.40,0.024
555.45,0.026
555.50,0.024
555.55,0.025
555.60,0.024
555.65,0.025
555.70,0.030
555.75,0.034
555.80,0.036
555.85,0.035
555.90,0.036
555.95,0.034
556.00,0.034
556.05,0.034
556.10,0.034
556.15,0.032
556.20,0.032
556.25,0.032
556.30,0.029
556.35,0.030
556.40,0.030
556.45,0.029
556.50,0.026
556.55,0.028
556.60,0.028
556.65,0.029
556.70,0.028
556.75,0.028
556.80,0.027
556.85,0.026
556.90,0.024
556.95,0.027
557.00,0.032
557.05,0.035
557.10,0.032
557.15,0.032
557.20,0.031
557.25,0.030
557.30,0.031
557.35,0.030
557.40,0.029
557.45,0.030
557.50,0.028
557.55,0.028
557.60,0.028
557.65,0.028
557.70,0.029
557.75,0.025
557.80,0.028
557.85,0.029
557.90,0.027
557.95,0.026
558.00,0.023
558.05,0.026
558.10,0.025
558.15,0.024
558.20,0.024
558.25,0.024
558.30,0.022
558.35,0.023
558.40,0.023
558.45,0.025
558.50,0.021
558.55,0.026
558.60,0.034
558.65,0.032
558.70,0.032
558.75,0.033
558.80,0.029
558.85,0.031
558.90,0.030
558.95,0.032
559.00,0.028
559.05,0.029
559.10,0.029
559.15,0.027
559.20,0.028
559.25,0.029
559.30,0.029
559.35,0.026
559.40,0.026
559.45,0.026
559.50,0.024
559.55,0.027
559.60,0.026
559.65,0.025
559.70,0.026
559.75,0.029
559.80,0.031
559.85,0.031
559.90,0.032
559.95,0.031
560.00,0.030
560.05,0.030
560.10,0.029
560.15,0.028
560.20,0.028
560.25,0.028
560.30,0.029
560.35,0.028
560.40,0.027
560.45,0.025
560.50,0.027
560.55,0.026
560.60,0.025
560.65,0.025
560.70,0.025
560.75,0.024
560.80,0.026
560.85,0.023
560.90,0.023
560.95,0.024
561.00,0.023
561.05,0.021
561.10,0.022
561.15,0.020
561.20,0.022
561.25,0.021
561.30,0.022
561.35,0.022
561.40,0.025
561.45,0.031
561.50,0.029
561.55,0.030
561.60,0.028
561.65,0.029
561.70,0.028
561.75,0.027
561.80,0.028
561.85,0.027
561.90,0.027
561.95,0.026
562.00,0.026
562.05,0.024
562.10,0.026
562.15,0.026
562.20,0.024
562.25,0.024
562.30,0.023
562.35,0.024
562.40,0.026
562.45,0.029
562.50,0.032
562.55,0.030
562.60,0.030
562.65,0.030
562.70,0.031
562.75,0.027
562.80,0.032
562.85,0.029
562.90,0.027
562.95,0.029
563.00,0.028
563.05,0.028
563.10,0.027
563.15,0.025
563.20,0.026
563.25,0.024
563.30,0.028
563.35,0.025
563.40,0.024
563.45,0.023
563.50,0.022
563.55,0.022
563.60,0.023
563.65,0.023
563.70,0.024
563.75,0.022
563.80,0.024
563.85,0.021
563.90,0.021
563.95,0.022
564.00,0.020
564.05,0.020
564.10,0.022
564.15,0.022
564.20,0.021
564.25,0.019
564.30,0.020
564.35,0.022
564.40,0.027
564.45,0.030
564.50,0.028
564.55,0.027
564.60,0.026
564.65,0.027
564.70,0.025
564.75,0.023
564.80,0.024
564.85,0.025
564.90,0.025
564.95,0.023
565.00,0.024
565.05,0.022
565.10,0.023
565.15,0.023
565.20,0.024
565.25,0.021
565.30,0.029
565.35,0.029
565.40,0.031
565.45,0.030
565.50,0.030
565.55,0.030
565.60,0.030
565.65,0.028
565.70,0.030
565.75,0.028
565.80,0.027
565.85,0.027
565.90,0.027
565.95,0.025
566.00,0.027
566.05,0.025
566.10,0.027
566.15,0.026
566.20,0.023
566.25,0.024
566.30,0.026
566.35,0.024
566.40,0.022
566.45,0.025
566.50,0.023
566.55,0.022
566.60,0.023
566.65,0.024
566.70,0.022
566.75,0.024
566.80,0.022
566.85,0.021
566.90,0.019
566.95,0.022
567.00,0.020
567.05,0.020
567.10,0.020
567.15,0.019
567.20,0.021
567.25,0.019
567.30,0.018
567.35,0.018
567.40,0.021
567.45,0.022
567.50,0.025
567.55,0.025
567.60,0.024
567.65,0.025
567.70,0.023
567.75,0.024
567.80,0.023
567.85,0.025
567.90,0.023
567.95,0.024
568.00,0.024
568.05,0.022
568.10,0.024
568.15,0.022
568.20,0.024
568.25,0.029
568.30,0.030
568.35,0.031
568.40,0.030
568.45,0.028
568.50,0.028
568.55,0.029
568.60,0.026
568.65,0.028
568.70,0.028
568.75,0.027
568.80,0.026
568.85,0.025
568.90,0.024
568.95,0.026
569.00,0.023
569.05,0.024
569.10,0.024
569.15,0.024
569.20,0.024
569.25,0.024
569.30,0.024
569.35,0.025
569.40,0.022
569.45,0.021
569.50,0.022
569.55,0.022
569.60,0.022
569.65,0.022
569.70,0.022
569.75,0.020
569.80,0.021
569.85,0.019
569.90,0.020
569.95,0.018
570.00,0.020
570.05,0.021
570.10,0.019
570.15,0.018
570.20,0.017
570.25,0.019
570.30,0.016
570.35,0.019
570.40,0.019
570.45,0.017
570.50,0.021
570.55,0.023
570.60,0.022
570.65,0.023
570.70,0.023
570.75,0.022
570.80,0.021
570.85,0.021
570.90,0.020
570.95,0.022
571.00,0.019
571.05,0.021
571.10,0.021
571.15,0.024
571.20,0.029
571.25,0.028
571.30,0.028
571.35,0.028
571.40,0.027
571.45,0.027
571.50,0.025
571.55,0.026
571.60,0.025
571.65,0.026
571.70,0.023
571.75,0.025
571.80,0.026
571.85,0.024
571.90,0.025
571.95,0.024
572.00,0.024
572.05,0.022
572.10,0.025
572.15,0.023
572.20,0.022
572.25,0.022
572.30,0.025
572.35,0.022
572.40,0.021
572.45,0.022
572.50,0.021
572.55,0.022
572.60,0.021
572.65,0.024
572.70,0.021
572.75,0.019
572.80,0.021
572.85,0.018
572.90,0.019
572.95,0.019
573.00,0.018
573.05,0.017
573.10,0.019
573.15,0.017
573.20,0.017
573.25,0.020
573.30,0.018
573.35,0.018
573.40,0.016
573.45,0.016
573.50,0.018
573.55,0.018
573.60,0.017
573.65,0.016
573.70,0.016
573.75,0.017
573.80,0.018
573.85,0.017
573.90,0.022
573.95,0.020
574.00,0.021
574.05,0.019
574.10,0.020
574.15,0.020
574.20,0.019
574.25,0.020
574.30,0.019
574.35,0.020
574.40,0.020
574.45,0.025
574.50,0.024
574.55,0.027
574.60,0.026
574.65,0.025
574.70,0.027
574.75,0.024
574.80,0.025
574.85,0.024
574.90,0.024
574.95,0.021
575.00,0.024
575.05,0.022
575.10,0.021
575.15,0.022
575.20,0.023
575.25,0.022
575.30,0.024
575.35,0.023
575.40,0.022
575.45,0.023
575.50,0.022
575.55,0.021
575.60,0.021
575.65,0.022
575.70,0.019
575.75,0.019
575.80,0.021
575.85,0.020
575.90,0.021
575.95,0.020
576.00,0.021
576.05,0.021
576.10,0.019
576.15,0.017
576.20,0.018
576.25,0.017
576.30,0.017
576.35,0.020
576.40,0.019
576.45,0.019
576.50,0.017
576.55,0.018
576.60,0.015
576.65,0.018
576.70,0.017
576.75,0.017
576.80,0.016
576.85,0.016
576.90,0.017
576.95,0.016
577.00,0.015
577.05,0.016
577.10,0.017
577.15,0.013
577.20,0.017
577.25,0.017
577.30,0.015
577.35,0.017
577.40,0.016
577.45,0.019
577.50,0.015
577.55,0.019
577.60,0.017
577.65,0.021
577.70,0.023
577.75,0.024
577.80,0.023
577.85,0.023
577.90,0.024
577.95,0.022
578.00,0.024
578.05,0.022
578.10,0.021
578.15,0.023
578.20,0.020
578.25,0.020
578.30,0.022
578.35,0.023
578.40,0.022
578.45,0.024
578.50,0.022
578.55,0.022
578.60,0.024
578.65,0.022
578.70,0.024
578.75,0.021
578.80,0.019
578.85,0.020
578.90,0.021
578.95,0.019
579.00,0.019
579.05,0.019
579.10,0.018
579.15,0.018
579.20,0.019
579.25,0.020
579.30,0.017
579.35,0.018
579.40,0.017
579.45,0.018
579.50,0.018
579.55,0.018
579.60,0.016
579.65,0.017
579.70,0.017
579.75,0.017
579.80,0.017
579.85,0.017
579.90,0.017
579.95,0.014
580.00,0.016
580.05,0.015
580.10,0.016
580.15,0.015
580.20,0.016
580.25,0.014
580.30,0.015
580.35,0.014
580.40,0.016
580.45,0.015
580.50,0.017
580.55,0.013
580.60,0.014
580.65,0.015
580.70,0.014
580.75,0.017
580.80,0.017
580.85,0.016
580.90,0.014
580.95,0.017
581.00,0.019
581.05,0.023
581.10,0.021
581.15,0.023
581.20,0.022
