"mrg - RawData"
"Wavelength nm.","Abs."
510.00,0.029
510.05,0.029
510.10,0.031
510.15,0.031
510.20,0.033
510.25,0.032
510.30,0.031
510.35,0.031
510.40,0.031
510.45,0.031
510.50,0.029
510.55,0.031
510.60,0.030
510.65,0.029
510.70,0.028
510.75,0.030
510.80,0.027
510.85,0.026
510.90,0.029
510.95,0.028
511.00,0.028
511.05,0.032
511.10,0.032
511.15,0.033
511.20,0.032
511.25,0.032
511.30,0.033
511.35,0.030
511.40,0.032
511.45,0.031
511.50,0.030
511.55,0.032
511.60,0.028
511.65,0.030
511.70,0.030
511.75,0.031
511.80,0.030
511.85,0.029
511.90,0.030
511.95,0.029
512.00,0.027
512.05,0.030
512.10,0.032
512.15,0.034
512.20,0.035
512.25,0.035
512.30,0.033
512.35,0.034
512.40,0.033
512.45,0.031
512.50,0.033
512.55,0.030
512.60,0.031
512.65,0.031
512.70,0.032
512.75,0.030
512.80,0.028
512.85,0.028
512.90,0.028
512.95,0.028
513.00,0.028
513.05,0.027
513.10,0.030
513.15,0.032
513.20,0.033
513.25,0.035
513.30,0.033
513.35,0.034
513.40,0.033
513.45,0.033
513.50,0.034
513.55,0.032
513.60,0.033
513.65,0.031
513.70,0.031
513.75,0.032
513.80,0.029
513.85,0.031
513.90,0.031
513.95,0.030
514.00,0.030
514.05,0.030
514.10,0.030
514.15,0.031
514.20,0.029
514.25,0.030
514.30,0.034
514.35,0.033
514.40,0.034
514.45,0.035
514.50,0.035
514.55,0.034
514.60,0.032
514.65,0.034
514.70,0.034
514.75,0.030
514.80,0.033
514.85,0.031
514.90,0.033
514.95,0.033
515.00,0.030
515.05,0.031
515.10,0.030
515.15,0.031
515.20,0.029
515.25,0.029
515.30,0.029
515.35,0.030
515.40,0.029
515.45,0.033
515.50,0.036
515.55,0.036
515.60,0.035
515.65,0.033
515.70,0.034
515.75,0.035
515.80,0.034
515.85,0.035
515.90,0.031
515.95,0.032
516.00,0.031
516.05,0.030
516.10,0.032
516.15,0.029
516.20,0.030
516.25,0.030
516.30,0.031
516.35,0.028
516.40,0.028
516.45,0.030
516.50,0.026
516.55,0.029
516.60,0.029
516.65,0.031
516.70,0.037
516.75,0.035
516.80,0.036
516.85,0.035
516.90,0.036
516.95,0.034
517.00,0.033
517.05,0.033
517.10,0.033
517.15,0.031
517.20,0.033
517.25,0.031
517.30,0.036
517.35,0.031
517.40,0.030
517.45,0.029
517.50,0.028
517.55,0.029
517.60,0.026
517.65,0.028
517.70,0.028
517.75,0.028
517.80,0.029
517.85,0.025
517.90,0.029
517.95,0.032
518.00,0.036
518.05,0.036
518.10,0.036
518.15,0.035
518.20,0.035
518.25,0.036
518.30,0.035
518.35,0.033
518.40,0.033
518.45,0.033
518.50,0.032
518.55,0.034
518.60,0.029
518.65,0.031
518.70,0.031
518.75,0.031
518.80,0.031
518.85,0.030
518.90,0.030
518.95,0.029
519.00,0.028
519.05,0.029
519.10,0.028
519.15,0.030
519.20,0.029
519.25,0.030
519.30,0.033
519.35,0.037
519.40,0.035
519.45,0.036
519.50,0.039
519.55,0.034
519.60,0.033
519.65,0.035
519.70,0.032
519.75,0.033
519.80,0.031
519.85,0.030
519.90,0.029
519.95,0.031
520.00,0.030
520.05,0.030
520.10,0.032
520.15,0.031
520.20,0.030
520.25,0.029
520.30,0.028
520.35,0.030
520.40,0.026
520.45,0.031
520.50,0.027
520.55,0.025
520.60,0.027
520.65,0.029
520.70,0.027
520.75,0.035
520.80,0.039
520.85,0.037
520.90,0.036
520.95,0.035
521.00,0.035
521.05,0.036
521.10,0.034
521.15,0.034
521.20,0.034
521.25,0.032
521.30,0.032
521.35,0.035
521.40,0.033
521.45,0.030
521.50,0.030
521.55,0.032
521.60,0.031
521.65,0.031
521.70,0.030
521.75,0.029
521.80,0.028
521.85,0.028
521.90,0.028
521.95,0.028
522.00,0.027
522.05,0.028
522.10,0.027
522.15,0.029
522.20,0.037
522.25,0.038
522.30,0.036
522.35,0.036
522.40,0.039
522.45,0.034
522.50,0.038
522.55,0.035
522.60,0.035
522.65,0.037
522.70,0.033
522.75,0.035
522.80,0.033
522.85,0.033
522.90,0.033
522.95,0.032
523.00,0.032
523.05,0.031
523.10,0.030
523.15,0.032
523.20,0.030
523.25,0.030
523.30,0.026
523.35,0.027
523.40,0.029
523.45,0.024
523.50,0.030
523.55,0.028
523.60,0.028
523.65,0.029
523.70,0.037
523.75,0.037
523.80,0.038
523.85,0.039
523.90,0.036
523.95,0.035
524.00,0.038
524.05,0.033
524.10,0.038
524.15,0.038
524.20,0.037
524.25,0.036
524.30,0.034
524.35,0.034
524.40,0.035
524.45,0.031
524.50,0.033
524.55,0.030
524.60,0.031
524.65,0.033
524.70,0.031
524.75,0.029
524.80,0.030
524.85,0.029
524.90,0.029
524.95,0.027
525.00,0.030
525.05,0.028
525.10,0.027
525.15,0.028
525.20,0.027
525.25,0.026
525.30,0.033
525.35,0.039
525.40,0.040
525.45,0.036
525.50,0.037
525.55,0.038
525.60,0.038
525.65,0.037
525.70,0.038
525.75,0.035
525.80,0.036
525.85,0.036
525.90,0.035
525.95,0.033
526.00,0.034
526.05,0.032
526.10,0.035
526.15,0.033
526.20,0.033
526.25,0.031
526.30,0.029
526.35,0.031
526.40,0.031
526.45,0.031
526.50,0.028
526.55,0.030
526.60,0.028
526.65,0.026
526.70,0.028
526.75,0.027
526.80,0.026
526.85,0.029
526.90,0.029
526.95,0.034
527.00,0.042
527.05,0.038
527.10,0.038
527.15,0.038
527.20,0.039
527.25,0.039
527.30,0.037
527.35,0.037
527.40,0.037
527.45,0.035
527.50,0.035
527.55,0.036
527.60,0.035
527.65,0.036
527.70,0.033
527.75,0.033
527.80,0.032
527.85,0.032
527.90,0.030
527.95,0.031
528.00,0.031
528.05,0.031
528.10,0.029
528.15,0.030
528.20,0.029
528.25,0.029
528.30,0.027
528.35,0.027
528.40,0.028
528.45,0.028
528.50,0.027
528.55,0.026
528.60,0.026
528.65,0.026
528.70,0.027
528.75,0.034
528.80,0.042
528.85,0.040
528.90,0.043
528.95,0.040
529.00,0.037
529.05,0.042
529.10,0.036
529.15,0.037
529.20,0.036
529.25,0.036
529.30,0.036
529.35,0.032
529.40,0.031
529.45,0.032
529.50,0.033
529.55,0.031
529.60,0.031
529.65,0.031
529.70,0.033
529.75,0.029
529.80,0.031
529.85,0.030
529.90,0.028
529.95,0.029
530.00,0.029
530.05,0.027
530.10,0.027
530.15,0.027
530.20,0.027
530.25,0.025
530.30,0.025
530.35,0.027
530.40,0.025
530.45,0.025
530.50,0.024
530.55,0.029
530.60,0.037
530.65,0.038
530.70,0.040
530.75,0.038
530.80,0.039
530.85,0.038
530.90,0.036
530.95,0.037
531.00,0.036
531.05,0.037
531.10,0.036
531.15,0.036
531.20,0.032
531.25,0.035
531.30,0.032
531.35,0.033
531.40,0.031
531.45,0.032
531.50,0.033
531.55,0.029
531.60,0.031
531.65,0.029
531.70,0.029
531.75,0.027
531.80,0.029
531.85,0.028
531.90,0.027
531.95,0.024
532.00,0.028
532.05,0.027
532.10,0.024
532.15,0.026
532.20,0.024
532.25,0.025
532.30,0.023
532.35,0.024
532.40,0.022
532.45,0.025
532.50,0.033
532.55,0.040
532.60,0.039
532.65,0.040
532.70,0.038
532.75,0.039
532.80,0.039
532.85,0.037
532.90,0.037
532.95,0.036
533.00,0.036
533.05,0.034
533.10,0.034
533.15,0.034
533.20,0.034
533.25,0.031
533.30,0.032
533.35,0.031
533.40,0.031
533.45,0.031
533.50,0.028
533.55,0.028
533.60,0.028
533.65,0.028
533.70,0.029
533.75,0.029
533.80,0.028
533.85,0.027
533.90,0.024
533.95,0.025
534.00,0.026
534.05,0.025
534.10,0.025
534.15,0.026
534.20,0.024
534.25,0.027
534.30,0.026
534.35,0.024
534.40,0.025
534.45,0.030
534.50,0.037
534.55,0.041
534.60,0.038
534.65,0.039
534.70,0.036
534.75,0.038
534.80,0.036
534.85,0.036
534.90,0.036
534.95,0.037
535.00,0.034
535.05,0.031
535.10,0.033
535.15,0.034
535.20,0.033
535.25,0.030
535.30,0.031
535.35,0.031
535.40,0.030
535.45,0.030
535.50,0.031
535.55,0.031
535.60,0.028
535.65,0.031
535.70,0.026
535.75,0.028
535.80,0.026
535.85,0.026
535.90,0.026
535.95,0.028
536.00,0.023
536.05,0.026
536.10,0.024
536.15,0.025
536.20,0.025
536.25,0.025
536.30,0.026
536.35,0.025
536.40,0.023
536.45,0.026
536.50,0.030
536.55,0.039
536.60,0.040
536.65,0.038
536.70,0.040
536.75,0.038
536.80,0.039
536.85,0.036
536.90,0.037
536.95,0.036
537.00,0.035
537.05,0.036
537.10,0.035
537.15,0.033
537.20,0.035
537.25,0.031
537.30,0.032
537.35,0.032
537.40,0.031
537.45,0.031
537.50,0.031
537.55,0.031
537.60,0.030
537.65,0.031
537.70,0.029
537.75,0.030
537.80,0.029
537.85,0.028
537.90,0.027
537.95,0.025
538.00,0.026
538.05,0.025
538.10,0.025
538.15,0.024
538.20,0.024
538.25,0.023
538.30,0.023
538.35,0.023
538.40,0.023
538.45,0.022
538.50,0.024
538.55,0.023
538.60,0.033
538.65,0.039
538.70,0.039
538.75,0.039
538.80,0.039
538.85,0.040
538.90,0.037
538.95,0.038
539.00,0.037
539.05,0.035
539.10,0.034
539.15,0.037
539.20,0.036
539.25,0.034
539.30,0.034
539.35,0.030
539.40,0.033
539.45,0.032
539.50,0.031
539.55,0.032
539.60,0.031
539.65,0.031
539.70,0.030
539.75,0.029
539.80,0.028
539.85,0.028
539.90,0.027
539.95,0.026
540.00,0.028
540.05,0.027
540.10,0.026
540.15,0.024
540.20,0.025
540.25,0.026
540.30,0.025
540.35,0.023
540.40,0.021
540.45,0.025
540.50,0.024
540.55,0.022
540.60,0.022
540.65,0.023
540.70,0.023
540.75,0.025
540.80,0.031
540.85,0.038
540.90,0.040
540.95,0.041
541.00,0.039
541.05,0.038
541.10,0.039
541.15,0.037
541.20,0.037
541.25,0.037
541.30,0.037
541.35,0.035
541.40,0.034
541.45,0.036
541.50,0.033
541.55,0.032
541.60,0.031
541.65,0.033
541.70,0.031
541.75,0.029
541.80,0.028
541.85,0.030
541.90,0.029
541.95,0.027
542.00,0.029
542.05,0.027
542.10,0.027
542.15,0.027
542.20,0.027
542.25,0.025
542.30,0.025
542.35,0.025
542.40,0.025
542.45,0.023
542.50,0.025
542.55,0.023
542.60,0.022
542.65,0.023
542.70,0.025
542.75,0.023
542.80,0.021
542.85,0.024
542.90,0.023
542.95,0.023
543.00,0.023
543.05,0.028
543.10,0.036
543.15,0.039
543.20,0.037
543.25,0.037
543.30,0.036
543.35,0.037
543.40,0.034
543.45,0.034
543.50,0.034
543.55,0.033
543.60,0.034
543.65,0.029
543.70,0.033
543.75,0.032
543.80,0.030
543.85,0.029
543.90,0.032
543.95,0.027
544.00,0.029
544.05,0.029
544.10,0.027
544.15,0.028
544.20,0.027
544.25,0.027
544.30,0.026
544.35,0.025
544.40,0.027
544.45,0.025
544.50,0.025
544.55,0.024
544.60,0.024
544.65,0.023
544.70,0.024
544.75,0.022
544.80,0.023
544.85,0.023
544.90,0.024
544.95,0.025
545.00,0.024
545.05,0.024
545.10,0.023
545.15,0.023
545.20,0.023
545.25,0.021
545.30,0.022
545.35,0.021
545.40,0.024
545.45,0.025
545.50,0.035
545.55,0.039
545.60,0.038
545.65,0.037
545.70,0.036
545.75,0.036
545.80,0.034
545.85,0.035
545.90,0.032
545.95,0.032
546.00,0.032
546.05,0.031
546.10,0.029
546.15,0.031
546.20,0.030
546.25,0.028
546.30,0.029
546.35,0.028
546.40,0.026
546.45,0.027
546.50,0.027
546.55,0.025
546.60,0.027
546.65,0.023
546.70,0.024
546.75,0.023
546.80,0.024
546.85,0.023
546.90,0.024
546.95,0.023
547.00,0.026
547.05,0.021
547.10,0.024
547.15,0.023
547.20,0.023
547.25,0.027
547.30,0.023
547.35,0.023
547.40,0.024
547.45,0.022
547.50,0.022
547.55,0.024
547.60,0.022
547.65,0.021
547.70,0.021
547.75,0.023
547.80,0.022
547.85,0.023
547.90,0.029
547.95,0.036
548.00,0.035
548.05,0.036
548.10,0.036
548.15,0.033
548.20,0.034
548.25,0.034
548.30,0.034
548.35,0.032
548.40,0.032
548.45,0.031
548.50,0.031
548.55,0.032
548.60,0.028
548.65,0.030
548.70,0.028
548.75,0.024
548.80,0.027
548.85,0.026
548.90,0.027
548.95,0.026
549.00,0.024
549.05,0.026
549.10,0.024
549.15,0.024
549.20,0.025
549.25,0.024
549.30,0.023
549.35,0.022
549.40,0.023
549.45,0.027
549.50,0.027
549.55,0.027
549.60,0.028
549.65,0.026
549.70,0.024
549.75,0.024
549.80,0.023
549.85,0.025
549.90,0.022
549.95,0.023
550.00,0.023
550.05,0.022
550.10,0.024
550.15,0.021
550.20,0.020
550.25,0.021
550.30,0.020
550.35,0.025
550.40,0.032
550.45,0.036
550.50,0.034
550.55,0.034
550.60,0.037
550.65,0.032
550.70,0.033
550.75,0.030
550.80,0.032
550.85,0.031
550.90,0.029
550.95,0.030
551.00,0.029
551.05,0.029
551.10,0.028
551.15,0.027
551.20,0.028
551.25,0.028
551.30,0.030
551.35,0.025
551.40,0.025
551.45,0.026
551.50,0.025
551.55,0.025
551.60,0.025
551.65,0.022
551.70,0.024
551.75,0.023
551.80,0.024
551.85,0.026
551.90,0.027
551.95,0.027
552.00,0.026
552.05,0.027
552.10,0.026
552.15,0.026
552.20,0.025
552.25,0.024
552.30,0.022
552.35,0.024
552.40,0.024
552.45,0.023
552.50,0.023
552.55,0.021
552.60,0.023
552.65,0.021
552.70,0.022
552.75,0.022
552.80,0.021
552.85,0.019
552.90,0.020
552.95,0.023
553.00,0.028
553.05,0.031
553.10,0.032
553.15,0.033
553.20,0.032
553.25,0.030
553.30,0.031
553.35,0.031
553.40,0.030
553.45,0.028
553.50,0.030
553.55,0.030
553.60,0.027
553.65,0.029
553.70,0.026
553.75,0.027
553.80,0.026
553.85,0.026
553.90,0.023
553.95,0.025
554.00,0.024
554.05,0.023
554.10,0.025
554.15,0.023
554.20,0.023
554.25,0.022
554.30,0.021
554.35,0.026
554.40,0.027
554.45,0.025
554.50,0.027
554.55,0.026
554.60,0.025
554.65,0.024
554.70,0.024
554.75,0.026
554.80,0.023
554.85,0.024
554.90,0.023
554.95,0.023
555.00,0.023
555.05,0.020
555.10,0.022
555.15,0.019
555.20,0.021
555.25,0.022
555.30,0.020
555.35,0.019
555.40,0.019
555.45,0.019
555.50,0.018
555.55,0.019
555.60,0.020
555.65,0.020
555.70,0.024
555.75,0.028
555.80,0.031
555.85,0.028
555.90,0.028
555.95,0.030
556.00,0.028
556.05,0.027
556.10,0.030
556.15,0.027
556.20,0.026
556.25,0.027
556.30,0.024
556.35,0.025
556.40,0.026
556.45,0.023
556.50,0.022
556.55,0.022
556.60,0.023
556.65,0.024
556.70,0.022
556.75,0.021
556.80,0.022
556.85,0.020
556.90,0.021
556.95,0.020
557.00,0.024
557.05,0.028
557.10,0.027
557.15,0.026
557.20,0.025
557.25,0.024
557.30,0.025
557.35,0.024
557.40,0.023
557.45,0.023
557.50,0.023
557.55,0.022
557.60,0.023
557.65,0.022
557.70,0.023
557.75,0.020
557.80,0.022
557.85,0.022
557.90,0.020
557.95,0.021
558.00,0.020
558.05,0.020
558.10,0.019
558.15,0.018
558.20,0.019
558.25,0.019
558.30,0.015
558.35,0.018
558.40,0.017
558.45,0.018
558.50,0.017
558.55,0.020
558.60,0.027
558.65,0.026
558.70,0.026
558.75,0.028
558.80,0.025
558.85,0.026
558.90,0.024
558.95,0.025
559.00,0.023
559.05,0.025
559.10,0.022
559.15,0.023
559.20,0.023
559.25,0.022
559.30,0.022
559.35,0.020
559.40,0.019
559.45,0.022
559.50,0.021
559.55,0.019
559.60,0.021
559.65,0.020
559.70,0.022
559.75,0.025
559.80,0.028
559.85,0.026
559.90,0.027
559.95,0.025
560.00,0.023
560.05,0.023
560.10,0.023
560.15,0.023
560.20,0.024
560.25,0.022
560.30,0.024
560.35,0.023
560.40,0.020
560.45,0.020
560.50,0.020
560.55,0.019
560.60,0.020
560.65,0.018
560.70,0.019
560.75,0.020
560.80,0.020
560.85,0.019
560.90,0.018
560.95,0.018
561.00,0.019
561.05,0.017
561.10,0.017
561.15,0.014
561.20,0.017
561.25,0.016
561.30,0.015
561.35,0.018
561.40,0.019
561.45,0.024
561.50,0.025
561.55,0.023
561.60,0.023
561.65,0.023
561.70,0.022
561.75,0.022
561.80,0.022
561.85,0.021
561.90,0.020
561.95,0.021
562.00,0.021
562.05,0.019
562.10,0.019
562.15,0.019
562.20,0.019
562.25,0.018
562.30,0.019
562.35,0.018
562.40,0.022
562.45,0.023
562.50,0.025
562.55,0.025
562.60,0.024
562.65,0.025
562.70,0.025
562.75,0.023
562.80,0.026
562.85,0.024
562.90,0.022
562.95,0.024
563.00,0.021
563.05,0.021
563.10,0.022
563.15,0.020
563.20,0.020
563.25,0.019
563.30,0.023
563.35,0.021
563.40,0.020
563.45,0.018
563.50,0.017
563.55,0.019
563.60,0.017
563.65,0.017
563.70,0.017
563.75,0.017
563.80,0.019
563.85,0.014
563.90,0.017
563.95,0.017
564.00,0.015
564.05,0.017
564.10,0.018
564.15,0.015
564.20,0.013
564.25,0.014
564.30,0.016
564.35,0.016
564.40,0.021
564.45,0.022
564.50,0.021
564.55,0.022
564.60,0.021
564.65,0.021
564.70,0.020
564.75,0.021
564.80,0.020
564.85,0.020
564.90,0.018
564.95,0.019
565.00,0.019
565.05,0.018
565.10,0.017
565.15,0.018
565.20,0.018
565.25,0.018
565.30,0.023
565.35,0.025
565.40,0.026
565.45,0.025
565.50,0.024
565.55,0.025
565.60,0.025
565.65,0.023
565.70,0.025
565.75,0.023
565.80,0.023
565.85,0.021
565.90,0.022
565.95,0.021
566.00,0.022
566.05,0.019
566.10,0.020
566.15,0.021
566.20,0.018
566.25,0.020
566.30,0.018
566.35,0.018
566.40,0.018
566.45,0.020
566.50,0.019
566.55,0.018
566.60,0.018
566.65,0.016
566.70,0.017
566.75,0.018
566.80,0.017
566.85,0.015
566.90,0.015
566.95,0.015
567.00,0.015
567.05,0.017
567.10,0.013
567.15,0.013
567.20,0.015
567.25,0.013
567.30,0.013
567.35,0.014
567.40,0.018
567.45,0.020
567.50,0.019
567.55,0.018
567.60,0.020
567.65,0.020
567.70,0.018
567.75,0.019
567.80,0.017
567.85,0.021
567.90,0.018
567.95,0.019
568.00,0.019
568.05,0.016
568.10,0.018
568.15,0.017
568.20,0.022
568.25,0.024
568.30,0.026
568.35,0.025
568.40,0.024
568.45,0.025
568.50,0.022
568.55,0.023
568.60,0.023
568.65,0.021
568.70,0.023
568.75,0.023
568.80,0.020
568.85,0.018
568.90,0.021
568.95,0.020
569.00,0.019
569.05,0.021
569.10,0.018
569.15,0.019
569.20,0.019
569.25,0.020
569.30,0.018
569.35,0.018
569.40,0.017
569.45,0.018
569.50,0.019
569.55,0.016
569.60,0.018
569.65,0.015
569.70,0.015
569.75,0.015
569.80,0.015
569.85,0.015
569.90,0.014
569.95,0.014
570.00,0.014
570.05,0.015
570.10,0.015
570.15,0.011
570.20,0.013
570.25,0.014
570.30,0.011
570.35,0.014
570.40,0.012
570.45,0.014
570.50,0.015
570.55,0.017
570.60,0.018
570.65,0.017
570.70,0.017
570.75,0.017
570.80,0.016
570.85,0.014
570.90,0.015
570.95,0.017
571.00,0.014
571.05,0.015
571.10,0.015
571.15,0.018
571.20,0.022
571.25,0.024
571.30,0.023
571.35,0.023
571.40,0.023
571.45,0.021
571.50,0.021
571.55,0.019
571.60,0.018
571.65,0.020
571.70,0.020
571.75,0.018
571.80,0.021
571.85,0.019
571.90,0.020
571.95,0.019
572.00,0.017
572.05,0.017
572.10,0.020
572.15,0.019
572.20,0.019
572.25,0.017
572.30,0.018
572.35,0.017
572.40,0.017
572.45,0.016
572.50,0.015
572.55,0.016
572.60,0.015
572.65,0.018
572.70,0.016
572.75,0.014
572.80,0.015
572.85,0.015
572.90,0.014
572.95,0.014
573.00,0.015
573.05,0.012
573.10,0.015
573.15,0.013
573.20,0.013
573.25,0.014
573.30,0.012
573.35,0.014
573.40,0.012
573.45,0.011
573.50,0.012
573.55,0.013
573.60,0.013
573.65,0.011
573.70,0.011
573.75,0.012
573.80,0.012
573.85,0.015
573.90,0.016
573.95,0.015
574.00,0.015
574.05,0.014
574.10,0.014
574.15,0.014
574.20,0.015
574.25,0.014
574.30,0.013
574.35,0.013
574.40,0.016
574.45,0.020
574.50,0.021
574.55,0.021
574.60,0.020
574.65,0.020
574.70,0.021
574.75,0.017
574.80,0.019
574.85,0.019
574.90,0.017
574.95,0.018
575.00,0.018
575.05,0.017
575.10,0.016
575.15,0.017
575.20,0.017
575.25,0.017
575.30,0.019
575.35,0.017
575.40,0.017
575.45,0.017
575.50,0.015
575.55,0.016
575.60,0.015
575.65,0.016
575.70,0.014
575.75,0.013
575.80,0.014
575.85,0.014
575.90,0.014
575.95,0.014
576.00,0.015
576.05,0.015
576.10,0.015
576.15,0.011
576.20,0.012
576.25,0.012
576.30,0.012
576.35,0.013
576.40,0.012
576.45,0.013
576.50,0.012
576.55,0.012
576.60,0.009
576.65,0.012
576.70,0.010
576.75,0.013
576.80,0.011
576.85,0.010
576.90,0.012
576.95,0.011
577.00,0.009
577.05,0.010
577.10,0.010
577.15,0.010
577.20,0.011
577.25,0.010
577.30,0.011
577.35,0.011
577.40,0.013
577.45,0.012
577.50,0.011
577.55,0.012
577.60,0.011
577.65,0.017
577.70,0.019
577.75,0.019
577.80,0.017
577.85,0.018
577.90,0.018
577.95,0.017
578.00,0.017
578.05,0.016
578.10,0.016
578.15,0.017
578.20,0.016
578.25,0.016
578.30,0.019
578.35,0.016
578.40,0.019
578.45,0.018
578.50,0.016
578.55,0.016
578.60,0.017
578.65,0.018
578.70,0.017
578.75,0.015
578.80,0.015
578.85,0.014
578.90,0.013
578.95,0.016
579.00,0.013
579.05,0.014
579.10,0.014
579.15,0.014
579.20,0.014
579.25,0.015
579.30,0.011
579.35,0.014
579.40,0.012
579.45,0.012
579.50,0.012
579.55,0.012
579.60,0.012
579.65,0.012
579.70,0.011
579.75,0.011
579.80,0.012
579.85,0.011
579.90,0.013
579.95,0.010
580.00,0.011
580.05,0.012
580.10,0.012
580.15,0.009
580.20,0.011
580.25,0.010
580.30,0.011
580.35,0.010
580.40,0.011
580.45,0.008
580.50,0.012
580.55,0.008
580.60,0.009
580.65,0.009
580.70,0.010
580.75,0.011
580.80,0.011
580.85,0.011
580.90,0.011
580.95,0.011
581.00,0.011
581.05,0.018
581.10,0.016
581.15,0.018
581.20,0.018
